Data from HR4C34221__6__15-14-53-316.txt Node

Date: Fri Apr 07 15:14:53 MSK 2023
User: 123
Spectrometer: HR4C3422
Trigger mode: 4
Integration Time (sec): 5,000000E-3
Scans to average: 1
Electric dark correction enabled: true
Nonlinearity correction enabled: false
Boxcar width: 0
XAxis mode: Wavelengths
Number of Pixels in Spectrum: 3648
>>>>>Begin Spectral Data<<<<<
195,326	-51,46
195,597	-51,46
195,868	-51,46
196,139	-13,46
196,409	8,54
196,68	6,54
196,951	3,54
197,221	4,54
197,492	-3,46
197,762	2,54
198,033	-7,46
198,304	-8,46
198,574	-2,46
198,845	-3,46
199,116	-1,46
199,386	2,54
199,657	9,54
199,927	-2,46
200,198	8,54
200,468	3,54
200,739	-8,46
201,009	-8,46
201,28	11,54
201,551	-6,46
201,821	-0,46
202,092	0,54
202,362	-2,46
202,633	11,54
202,903	-2,46
203,174	-7,46
203,444	-9,46
203,714	-8,46
203,985	-6,46
204,255	-0,46
204,526	-9,46
204,796	5,54
205,067	-1,46
205,337	-2,46
205,607	-7,46
205,878	-0,46
206,148	7,54
206,419	-8,46
206,689	5,54
206,959	1,54
207,23	-12,46
207,5	-5,46
207,77	7,54
208,041	-3,46
208,311	3,54
208,581	-0,46
208,852	-9,46
209,122	-8,46
209,392	6,54
209,663	-4,46
209,933	-0,46
210,203	10,54
210,473	6,54
210,744	5,54
211,014	2,54
211,284	-6,46
211,554	6,54
211,825	-9,46
212,095	-4,46
212,365	1,54
212,635	9,54
212,905	3,54
213,176	-6,46
213,446	4,54
213,716	2,54
213,986	0,54
214,256	-9,46
214,526	-11,46
214,797	8,54
215,067	0,54
215,337	-5,46
215,607	-18,46
215,877	-5,46
216,147	-8,46
216,417	-0,46
216,687	-6,46
216,957	-15,46
217,227	0,54
217,497	2,54
217,767	-4,46
218,038	-1,46
218,308	0,54
218,578	11,54
218,848	6,54
219,118	-3,46
219,388	8,54
219,658	-3,46
219,928	-1,46
220,198	-11,46
220,468	9,54
220,737	-10,46
221,007	5,54
221,277	-1,46
221,547	6,54
221,817	2,54
222,087	-0,46
222,357	7,54
222,627	-11,46
222,897	6,54
223,167	-7,46
223,437	15,54
223,707	2,54
223,976	3,54
224,246	5,54
224,516	-3,46
224,786	3,54
225,056	-0,46
225,326	2,54
225,595	10,54
225,865	3,54
226,135	-13,46
226,405	-1,46
226,675	-7,46
226,944	-2,46
227,214	4,54
227,484	-4,46
227,754	-12,46
228,023	-16,46
228,293	-4,46
228,563	-1,46
228,833	6,54
229,102	6,54
229,372	-8,46
229,642	-11,46
229,911	-11,46
230,181	11,54
230,451	-0,46
230,72	-6,46
230,99	-7,46
231,26	2,54
231,529	-2,46
231,799	-12,46
232,069	3,54
232,338	-5,46
232,608	-3,46
232,877	-0,46
233,147	-2,46
233,417	-4,46
233,686	10,54
233,956	-4,46
234,225	-8,46
234,495	-4,46
234,764	-15,46
235,034	-9,46
235,304	-2,46
235,573	-8,46
235,843	2,54
236,112	0,54
236,382	-2,46
236,651	-2,46
236,921	-8,46
237,19	13,54
237,46	-0,46
237,729	-5,46
237,998	6,54
238,268	-2,46
238,537	1,54
238,807	2,54
239,076	-12,46
239,346	-7,46
239,615	-7,46
239,884	1,54
240,154	6,54
240,423	-8,46
240,693	-5,46
240,962	1,54
241,231	0,54
241,501	3,54
241,77	-5,46
242,039	-1,46
242,309	-4,46
242,578	1,54
242,847	3,54
243,116	-1,46
243,386	3,54
243,655	2,54
243,924	-7,46
244,194	0,54
244,463	6,54
244,732	15,54
245,001	0,54
245,271	-3,46
245,54	2,54
245,809	-6,46
246,078	-2,46
246,347	-8,46
246,617	4,54
246,886	-0,46
247,155	6,54
247,424	-14,46
247,693	-14,46
247,963	-3,46
248,232	-15,46
248,501	3,54
248,77	-7,46
249,039	4,54
249,308	4,54
249,577	-8,46
249,846	4,54
250,115	-7,46
250,385	9,54
250,654	-12,46
250,923	6,54
251,192	7,54
251,461	-5,46
251,73	-1,46
251,999	-11,46
252,268	-8,46
252,537	-17,46
252,806	-19,46
253,075	-8,46
253,344	-13,46
253,613	-5,46
253,882	-16,46
254,151	-5,46
254,42	-0,46
254,689	3,54
254,958	-3,46
255,227	-7,46
255,496	5,54
255,765	-13,46
256,033	2,54
256,302	-3,46
256,571	-4,46
256,84	-1,46
257,109	2,54
257,378	-5,46
257,647	4,54
257,916	-0,46
258,184	-20,46
258,453	-7,46
258,722	-8,46
258,991	-0,46
259,26	-3,46
259,529	-8,46
259,797	-23,46
260,066	-9,46
260,335	-2,46
260,604	-2,46
260,873	-22,46
261,141	-9,46
261,41	-4,46
261,679	5,54
261,948	-4,46
262,216	-5,46
262,485	-15,46
262,754	-0,46
263,022	-4,46
263,291	-10,46
263,56	-3,46
263,829	-7,46
264,097	-8,46
264,366	0,54
264,635	4,54
264,903	5,54
265,172	-5,46
265,44	-4,46
265,709	-8,46
265,978	-2,46
266,246	6,54
266,515	0,54
266,784	1,54
267,052	-10,46
267,321	-4,46
267,589	-0,46
267,858	-1,46
268,126	-1,46
268,395	-0,46
268,663	-4,46
268,932	-3,46
269,201	-9,46
269,469	-10,46
269,738	-20,46
270,006	-10,46
270,275	-3,46
270,543	-10,46
270,811	-6,46
271,08	-14,46
271,348	-2,46
271,617	0,54
271,885	1,54
272,154	3,54
272,422	4,54
272,691	-5,46
272,959	6,54
273,227	-6,46
273,496	6,54
273,764	1,54
274,033	1,54
274,301	-0,46
274,569	-16,46
274,838	-3,46
275,106	-1,46
275,374	-0,46
275,643	-7,46
275,911	-11,46
276,179	-2,46
276,448	-12,46
276,716	2,54
276,984	9,54
277,252	0,54
277,521	-6,46
277,789	-12,46
278,057	-5,46
278,325	-5,46
278,594	-11,46
278,862	-8,46
279,13	-11,46
279,398	-8,46
279,667	-10,46
279,935	-4,46
280,203	-2,46
280,471	-3,46
280,739	-1,46
281,008	-2,46
281,276	-15,46
281,544	-12,46
281,812	-9,46
282,08	-5,46
282,348	-12,46
282,616	-3,46
282,884	-9,46
283,153	-3,46
283,421	3,54
283,689	2,54
283,957	-16,46
284,225	-4,46
284,493	-3,46
284,761	10,54
285,029	6,54
285,297	4,54
285,565	-3,46
285,833	-7,46
286,101	-3,46
286,369	-7,46
286,637	-11,46
286,905	-2,46
287,173	0,54
287,441	-3,46
287,709	-6,46
287,977	-3,46
288,245	-2,46
288,513	12,54
288,781	-4,46
289,049	-11,46
289,317	1,54
289,585	-7,46
289,853	10,54
290,12	-7,46
290,388	3,54
290,656	6,54
290,924	-19,46
291,192	-1,46
291,46	-2,46
291,728	6,54
291,996	-9,46
292,263	2,54
292,531	1,54
292,799	-0,46
293,067	-3,46
293,335	-8,46
293,602	-1,46
293,87	-14,46
294,138	-4,46
294,406	-0,46
294,673	-12,46
294,941	-7,46
295,209	-3,46
295,477	-1,46
295,744	-2,46
296,012	-1,46
296,28	-0,46
296,548	-11,46
296,815	1,54
297,083	-8,46
297,351	3,54
297,618	9,54
297,886	-9,46
298,154	-1,46
298,421	-10,46
298,689	-4,46
298,956	-14,46
299,224	-13,46
299,492	6,54
299,759	-10,46
300,027	-2,46
300,294	-4,46
300,562	-7,46
300,83	-10,46
301,097	-14,46
301,365	-7,46
301,632	-5,46
301,9	-6,46
302,167	-2,46
302,435	4,54
302,702	-1,46
302,97	13,54
303,237	0,54
303,505	0,54
303,772	-2,46
304,04	-1,46
304,307	1,54
304,575	-10,46
304,842	-7,46
305,11	3,54
305,377	0,54
305,645	6,54
305,912	4,54
306,179	-7,46
306,447	-5,46
306,714	-6,46
306,982	2,54
307,249	-2,46
307,516	7,54
307,784	-4,46
308,051	-13,46
308,318	-11,46
308,586	-7,46
308,853	7,54
309,12	1,54
309,388	-7,46
309,655	-4,46
309,922	-14,46
310,19	-6,46
310,457	-12,46
310,724	4,54
310,991	10,54
311,259	7,54
311,526	5,54
311,793	2,54
312,06	-2,46
312,328	-7,46
312,595	-33,46
312,862	2,54
313,129	-5,46
313,396	8,54
313,664	8,54
313,931	5,54
314,198	5,54
314,465	-3,46
314,732	-18,46
314,999	-6,46
315,266	4,54
315,534	-10,46
315,801	-9,46
316,068	-1,46
316,335	8,54
316,602	-8,46
316,869	-5,46
317,136	-1,46
317,403	13,54
317,67	5,54
317,937	-6,46
318,204	-8,46
318,471	6,54
318,738	-2,46
319,005	10,54
319,272	1,54
319,539	0,54
319,806	-4,46
320,073	-2,46
320,34	-2,46
320,607	-9,46
320,874	-0,46
321,141	-3,46
321,408	-5,46
321,675	-0,46
321,942	-5,46
322,209	-6,46
322,476	-11,46
322,743	-7,46
323,01	-11,46
323,277	-3,46
323,544	-9,46
323,81	7,54
324,077	-2,46
324,344	-2,46
324,611	0,54
324,878	-2,46
325,145	-15,46
325,412	4,54
325,678	5,54
325,945	-2,46
326,212	-0,46
326,479	4,54
326,746	2,54
327,012	1,54
327,279	-11,46
327,546	-1,46
327,813	-4,46
328,079	-12,46
328,346	5,54
328,613	-5,46
328,88	4,54
329,146	-3,46
329,413	-4,46
329,68	-3,46
329,946	14,54
330,213	-12,46
330,48	-10,46
330,746	-3,46
331,013	4,54
331,28	-3,46
331,546	-6,46
331,813	-15,46
332,08	-6,46
332,346	-9,46
332,613	9,54
332,879	-1,46
333,146	-5,46
333,413	-9,46
333,679	1,54
333,946	-16,46
334,212	-6,46
334,479	-5,46
334,745	1,54
335,012	4,54
335,278	-10,46
335,545	-6,46
335,811	-5,46
336,078	-0,46
336,344	1,54
336,611	-7,46
336,877	0,54
337,144	8,54
337,41	9,54
337,677	-2,46
337,943	-20,46
338,21	-0,46
338,476	-5,46
338,742	-1,46
339,009	-8,46
339,275	-12,46
339,542	-5,46
339,808	-13,46
340,074	-3,46
340,341	10,54
340,607	-7,46
340,873	-7,46
341,14	-7,46
341,406	-1,46
341,672	-4,46
341,939	2,54
342,205	-1,46
342,471	13,54
342,738	-0,46
343,004	7,54
343,27	5,54
343,537	-10,46
343,803	-2,46
344,069	-1,46
344,335	10,54
344,602	4,54
344,868	-5,46
345,134	-2,46
345,4	8,54
345,666	-10,46
345,933	11,54
346,199	7,54
346,465	1,54
346,731	0,54
346,997	-0,46
347,263	5,54
347,53	2,54
347,796	2,54
348,062	-4,46
348,328	4,54
348,594	13,54
348,86	3,54
349,126	0,54
349,392	2,54
349,659	-5,46
349,925	7,54
350,191	5,54
350,457	3,54
350,723	-5,46
350,989	-11,46
351,255	-7,46
351,521	-8,46
351,787	-9,46
352,053	-3,46
352,319	4,54
352,585	0,54
352,851	-1,46
353,117	5,54
353,383	6,54
353,649	-5,46
353,915	0,54
354,181	6,54
354,447	-4,46
354,713	-4,46
354,978	13,54
355,244	-3,46
355,51	-7,46
355,776	-6,46
356,042	-2,46
356,308	-1,46
356,574	-4,46
356,84	-6,46
357,106	-11,46
357,371	-6,46
357,637	10,54
357,903	5,54
358,169	1,54
358,435	-4,46
358,701	-9,46
358,966	10,54
359,232	-1,46
359,498	-8,46
359,764	-10,46
360,029	-4,46
360,295	-3,46
360,561	2,54
360,827	-1,46
361,092	-5,46
361,358	-1,46
361,624	-4,46
361,89	13,54
362,155	-5,46
362,421	5,54
362,687	5,54
362,952	0,54
363,218	8,54
363,484	8,54
363,749	-2,46
364,015	13,54
364,281	0,54
364,546	-13,46
364,812	11,54
365,077	-2,46
365,343	5,54
365,609	3,54
365,874	-9,46
366,14	6,54
366,405	4,54
366,671	-15,46
366,936	-9,46
367,202	-19,46
367,467	9,54
367,733	8,54
367,999	-9,46
368,264	-5,46
368,53	-5,46
368,795	-1,46
369,061	-2,46
369,326	-14,46
369,591	-10,46
369,857	-1,46
370,122	-6,46
370,388	-5,46
370,653	-5,46
370,919	-7,46
371,184	-6,46
371,45	-5,46
371,715	-0,46
371,98	0,54
372,246	9,54
372,511	3,54
372,776	4,54
373,042	-11,46
373,307	0,54
373,573	-2,46
373,838	4,54
374,103	-2,46
374,369	-2,46
374,634	-0,46
374,899	-4,46
375,164	3,54
375,43	-13,46
375,695	-4,46
375,96	-4,46
376,226	-16,46
376,491	1,54
376,756	-1,46
377,021	5,54
377,286	2,54
377,552	-3,46
377,817	0,54
378,082	-9,46
378,347	-2,46
378,613	3,54
378,878	7,54
379,143	0,54
379,408	0,54
379,673	-12,46
379,938	-8,46
380,203	-15,46
380,469	2,54
380,734	5,54
380,999	0,54
381,264	-6,46
381,529	-6,46
381,794	-5,46
382,059	-2,46
382,324	6,54
382,589	10,54
382,854	3,54
383,119	-6,46
383,385	-8,46
383,65	3,54
383,915	-13,46
384,18	1,54
384,445	-7,46
384,71	-6,46
384,975	-8,46
385,24	0,54
385,505	-9,46
385,77	-19,46
386,034	-2,46
386,299	-5,46
386,564	-1,46
386,829	-1,46
387,094	4,54
387,359	-1,46
387,624	2,54
387,889	1,54
388,154	-4,46
388,419	8,54
388,684	-5,46
388,949	-15,46
389,213	-5,46
389,478	0,54
389,743	-6,46
390,008	-3,46
390,273	6,54
390,538	-5,46
390,802	-5,46
391,067	-3,46
391,332	-2,46
391,597	-0,46
391,862	-13,46
392,126	-1,46
392,391	5,54
392,656	10,54
392,921	-4,46
393,185	4,54
393,45	-0,46
393,715	-8,46
393,979	-12,46
394,244	1,54
394,509	1,54
394,774	3,54
395,038	-3,46
395,303	-6,46
395,568	-3,46
395,832	-9,46
396,097	8,54
396,361	7,54
396,626	1,54
396,891	2,54
397,155	0,54
397,42	6,54
397,685	-11,46
397,949	-1,46
398,214	-13,46
398,478	2,54
398,743	0,54
399,007	-11,46
399,272	-5,46
399,536	8,54
399,801	-0,46
400,066	5,54
400,33	7,54
400,595	-0,46
400,859	3,54
401,124	7,54
401,388	0,54
401,652	12,54
401,917	-6,46
402,181	-1,46
402,446	9,54
402,71	2,54
402,975	-0,46
403,239	-15,46
403,504	-5,46
403,768	-1,46
404,032	-6,46
404,297	0,54
404,561	-6,46
404,826	-1,46
405,09	2,54
405,354	-5,46
405,619	-3,46
405,883	-4,46
406,147	-10,46
406,412	-4,46
406,676	-0,46
406,94	-2,46
407,205	3,54
407,469	-7,46
407,733	-3,46
407,997	-10,46
408,262	-5,46
408,526	3,54
408,79	-1,46
409,054	-2,46
409,319	2,54
409,583	6,54
409,847	4,54
410,111	-18,46
410,375	-3,46
410,64	11,54
410,904	-7,46
411,168	-2,46
411,432	1,54
411,696	-22,46
411,96	-9,46
412,225	3,54
412,489	19,54
412,753	-3,46
413,017	4,54
413,281	7,54
413,545	-7,46
413,809	4,54
414,073	3,54
414,337	4,54
414,602	2,54
414,866	3,54
415,13	4,54
415,394	-3,46
415,658	4,54
415,922	10,54
416,186	-1,46
416,45	2,54
416,714	-4,46
416,978	8,54
417,242	9,54
417,506	2,54
417,77	6,54
418,034	-0,46
418,298	8,54
418,562	4,54
418,825	13,54
419,089	1,54
419,353	4,54
419,617	-6,46
419,881	5,54
420,145	8,54
420,409	5,54
420,673	-5,46
420,937	10,54
421,2	6,54
421,464	13,54
421,728	15,54
421,992	27,54
422,256	23,54
422,52	14,54
422,783	2,54
423,047	4,54
423,311	14,54
423,575	21,54
423,839	20,54
424,102	21,54
424,366	27,54
424,63	23,54
424,894	-1,46
425,157	19,54
425,421	24,54
425,685	33,54
425,949	27,54
426,212	40,54
426,476	22,54
426,74	27,54
427,003	26,54
427,267	22,54
427,531	31,54
427,794	38,54
428,058	24,54
428,322	44,54
428,585	30,54
428,849	31,54
429,112	43,54
429,376	39,54
429,64	43,54
429,903	39,54
430,167	55,54
430,43	59,54
430,694	46,54
430,957	51,54
431,221	63,54
431,485	69,54
431,748	59,54
432,012	54,54
432,275	67,54
432,539	84,54
432,802	95,54
433,066	84,54
433,329	72,54
433,593	83,54
433,856	92,54
434,119	88,54
434,383	107,54
434,646	100,54
434,91	100,54
435,173	110,54
435,437	122,54
435,7	113,54
435,963	121,54
436,227	120,54
436,49	134,54
436,753	117,54
437,017	137,54
437,28	148,54
437,544	150,54
437,807	155,54
438,07	148,54
438,334	171,54
438,597	173,54
438,86	188,54
439,123	182,54
439,387	189,54
439,65	187,54
439,913	201,54
440,177	207,54
440,44	214,54
440,703	223,54
440,966	231,54
441,229	233,54
441,493	246,54
441,756	260,54
442,019	265,54
442,282	266,54
442,545	275,54
442,809	283,54
443,072	301,54
443,335	286,54
443,598	296,54
443,861	328,54
444,124	332,54
444,388	345,54
444,651	371,54
444,914	365,54
445,177	409,54
445,44	384,54
445,703	407,54
445,966	414,54
446,229	446,54
446,492	450,54
446,755	467,54
447,018	484,54
447,281	509,54
447,544	526,54
447,807	534,54
448,07	555,54
448,333	555,54
448,596	577,54
448,859	623,54
449,122	640,54
449,385	647,54
449,648	668,54
449,911	675,54
450,174	723,54
450,437	729,54
450,7	740,54
450,963	771,54
451,226	792,54
451,489	805,54
451,752	863,54
452,015	841,54
452,277	860,54
452,54	888,54
452,803	877,54
453,066	896,54
453,329	915,54
453,592	952,54
453,855	950,54
454,117	984,54
454,38	982,54
454,643	995,54
454,906	983,54
455,169	950,54
455,431	994,54
455,694	977,54
455,957	986,54
456,22	1008,54
456,482	956,54
456,745	978,54
457,008	1015,54
457,271	988,54
457,533	980,54
457,796	970,54
458,059	937,54
458,321	907,54
458,584	918,54
458,847	918,54
459,109	872,54
459,372	923,54
459,635	859,54
459,897	866,54
460,16	867,54
460,423	822,54
460,685	784,54
460,948	777,54
461,21	785,54
461,473	788,54
461,735	752,54
461,998	720,54
462,261	690,54
462,523	700,54
462,786	680,54
463,048	676,54
463,311	642,54
463,573	657,54
463,836	656,54
464,098	586,54
464,361	583,54
464,623	583,54
464,886	573,54
465,148	572,54
465,411	583,54
465,673	568,54
465,936	569,54
466,198	552,54
466,46	547,54
466,723	528,54
466,985	503,54
467,248	552,54
467,51	535,54
467,772	510,54
468,035	515,54
468,297	502,54
468,56	504,54
468,822	494,54
469,084	486,54
469,347	471,54
469,609	487,54
469,871	499,54
470,133	495,54
470,396	454,54
470,658	472,54
470,92	482,54
471,183	497,54
471,445	494,54
471,707	464,54
471,969	485,54
472,232	460,54
472,494	461,54
472,756	479,54
473,018	478,54
473,281	473,54
473,543	433,54
473,805	430,54
474,067	440,54
474,329	440,54
474,591	436,54
474,854	441,54
475,116	441,54
475,378	429,54
475,64	435,54
475,902	429,54
476,164	411,54
476,426	424,54
476,688	408,54
476,951	400,54
477,213	380,54
477,475	382,54
477,737	367,54
477,999	394,54
478,261	391,54
478,523	361,54
478,785	376,54
479,047	355,54
479,309	378,54
479,571	355,54
479,833	342,54
480,095	355,54
480,357	350,54
480,619	343,54
480,881	337,54
481,143	340,54
481,405	336,54
481,667	329,54
481,929	348,54
482,191	319,54
482,452	317,54
482,714	327,54
482,976	317,54
483,238	330,54
483,5	322,54
483,762	304,54
484,024	301,54
484,286	323,54
484,547	319,54
484,809	317,54
485,071	313,54
485,333	340,54
485,595	296,54
485,857	296,54
486,118	321,54
486,38	305,54
486,642	291,54
486,904	294,54
487,165	322,54
487,427	328,54
487,689	333,54
487,951	338,54
488,212	309,54
488,474	303,54
488,736	307,54
488,998	298,54
489,259	326,54
489,521	315,54
489,783	310,54
490,044	312,54
490,306	318,54
490,568	314,54
490,829	295,54
491,091	307,54
491,353	334,54
491,614	319,54
491,876	325,54
492,137	300,54
492,399	321,54
492,661	310,54
492,922	318,54
493,184	312,54
493,445	322,54
493,707	332,54
493,968	330,54
494,23	334,54
494,491	335,54
494,753	309,54
495,014	315,54
495,276	339,54
495,537	327,54
495,799	308,54
496,06	329,54
496,322	333,54
496,583	337,54
496,845	329,54
497,106	327,54
497,368	333,54
497,629	329,54
497,89	336,54
498,152	362,54
498,413	341,54
498,675	354,54
498,936	343,54
499,197	361,54
499,459	357,54
499,72	342,54
499,981	362,54
500,243	369,54
500,504	367,54
500,765	360,54
501,027	361,54
501,288	389,54
501,549	384,54
501,811	414,54
502,072	388,54
502,333	401,54
502,594	398,54
502,856	395,54
503,117	417,54
503,378	395,54
503,639	429,54
503,901	405,54
504,162	437,54
504,423	409,54
504,684	427,54
504,945	440,54
505,207	452,54
505,468	466,54
505,729	470,54
505,99	463,54
506,251	435,54
506,512	484,54
506,774	478,54
507,035	454,54
507,296	483,54
507,557	456,54
507,818	463,54
508,079	494,54
508,34	477,54
508,601	513,54
508,862	508,54
509,123	497,54
509,384	491,54
509,645	536,54
509,906	524,54
510,167	528,54
510,428	527,54
510,689	535,54
510,95	542,54
511,211	566,54
511,472	542,54
511,733	538,54
511,994	557,54
512,255	572,54
512,516	591,54
512,777	589,54
513,038	582,54
513,299	592,54
513,56	600,54
513,821	607,54
514,082	619,54
514,343	608,54
514,603	597,54
514,864	600,54
515,125	602,54
515,386	638,54
515,647	622,54
515,908	657,54
516,169	653,54
516,429	662,54
516,69	662,54
516,951	650,54
517,212	659,54
517,473	642,54
517,733	668,54
517,994	691,54
518,255	694,54
518,516	679,54
518,776	688,54
519,037	675,54
519,298	690,54
519,559	702,54
519,819	707,54
520,08	716,54
520,341	703,54
520,601	704,54
520,862	719,54
521,123	703,54
521,383	738,54
521,644	739,54
521,905	739,54
522,165	719,54
522,426	748,54
522,686	739,54
522,947	735,54
523,208	743,54
523,468	720,54
523,729	745,54
523,989	759,54
524,25	749,54
524,51	770,54
524,771	758,54
525,032	762,54
525,292	768,54
525,553	765,54
525,813	773,54
526,074	796,54
526,334	808,54
526,595	786,54
526,855	764,54
527,116	803,54
527,376	786,54
527,636	783,54
527,897	774,54
528,157	786,54
528,418	784,54
528,678	796,54
528,939	787,54
529,199	799,54
529,459	791,54
529,72	810,54
529,98	797,54
530,24	772,54
530,501	794,54
530,761	810,54
531,022	798,54
531,282	820,54
531,542	809,54
531,803	807,54
532,063	830,54
532,323	811,54
532,583	804,54
532,844	834,54
533,104	831,54
533,364	823,54
533,624	824,54
533,885	815,54
534,145	838,54
534,405	844,54
534,665	829,54
534,926	853,54
535,186	835,54
535,446	814,54
535,706	835,54
535,966	827,54
536,227	815,54
536,487	828,54
536,747	827,54
537,007	831,54
537,267	842,54
537,527	845,54
537,787	839,54
538,048	827,54
538,308	854,54
538,568	823,54
538,828	832,54
539,088	851,54
539,348	833,54
539,608	834,54
539,868	869,54
540,128	848,54
