Data from HR4C34221__10__15-21-59-220.txt Node

Date: Fri Apr 07 15:21:59 MSK 2023
User: 123
Spectrometer: HR4C3422
Trigger mode: 4
Integration Time (sec): 1,660000E-1
Scans to average: 1
Electric dark correction enabled: true
Nonlinearity correction enabled: false
Boxcar width: 0
XAxis mode: Wavelengths
Number of Pixels in Spectrum: 3648
>>>>>Begin Spectral Data<<<<<
195,326	-72,54
195,597	-72,54
195,868	-72,54
196,139	-63,54
196,409	-4,54
196,68	-17,54
196,951	10,46
197,221	-21,54
197,492	3,46
197,762	-0,54
198,033	-12,54
198,304	-3,54
198,574	3,46
198,845	27,46
199,116	-8,54
199,386	0,46
199,657	-18,54
199,927	37,46
200,198	2,46
200,468	0,46
200,739	6,46
201,009	1,46
201,28	0,46
201,551	1,46
201,821	1,46
202,092	2,46
202,362	13,46
202,633	4,46
202,903	5,46
203,174	-17,54
203,444	-5,54
203,714	2,46
203,985	3,46
204,255	4,46
204,526	61,46
204,796	-2,54
205,067	7,46
205,337	-8,54
205,607	-4,54
205,878	46,46
206,148	27,46
206,419	-1,54
206,689	-7,54
206,959	13,46
207,23	-0,54
207,5	15,46
207,77	19,46
208,041	-5,54
208,311	10,46
208,581	-7,54
208,852	-2,54
209,122	-8,54
209,392	-19,54
209,663	-3,54
209,933	-11,54
210,203	6,46
210,473	7,46
210,744	6,46
211,014	13,46
211,284	2,46
211,554	13,46
211,825	-1,54
212,095	-22,54
212,365	-1,54
212,635	9,46
212,905	6,46
213,176	10,46
213,446	24,46
213,716	-8,54
213,986	10,46
214,256	-4,54
214,526	4,46
214,797	7,46
215,067	19,46
215,337	8,46
215,607	7,46
215,877	12,46
216,147	2,46
216,417	-18,54
216,687	4,46
216,957	9,46
217,227	1,46
217,497	-4,54
217,767	-0,54
218,038	29,46
218,308	5,46
218,578	-0,54
218,848	9,46
219,118	-8,54
219,388	9,46
219,658	-16,54
219,928	20,46
220,198	-2,54
220,468	29,46
220,737	-15,54
221,007	-1,54
221,277	-1,54
221,547	11,46
221,817	5,46
222,087	2,46
222,357	5,46
222,627	-10,54
222,897	1,46
223,167	-5,54
223,437	-11,54
223,707	33,46
223,976	21,46
224,246	-11,54
224,516	6,46
224,786	19,46
225,056	18,46
225,326	-16,54
225,595	-4,54
225,865	-7,54
226,135	0,46
226,405	0,46
226,675	28,46
226,944	26,46
227,214	-3,54
227,484	-21,54
227,754	-0,54
228,023	-13,54
228,293	-14,54
228,563	15,46
228,833	-1,54
229,102	22,46
229,372	-1,54
229,642	27,46
229,911	24,46
230,181	12,46
230,451	-9,54
230,72	-3,54
230,99	8,46
231,26	6,46
231,529	-6,54
231,799	20,46
232,069	6,46
232,338	26,46
232,608	16,46
232,877	-7,54
233,147	-17,54
233,417	-1,54
233,686	14,46
233,956	4,46
234,225	-10,54
234,495	-38,54
234,764	0,46
235,034	-7,54
235,304	-17,54
235,573	155,46
235,843	-1,54
236,112	-7,54
236,382	-19,54
236,651	-2,54
236,921	-12,54
237,19	-19,54
237,46	-12,54
237,729	1,46
237,998	-2,54
238,268	-16,54
238,537	40,46
238,807	31,46
239,076	-15,54
239,346	-2,54
239,615	4,46
239,884	2,46
240,154	-10,54
240,423	-4,54
240,693	-22,54
240,962	0,46
241,231	-6,54
241,501	3,46
241,77	0,46
242,039	-7,54
242,309	1,46
242,578	-21,54
242,847	-18,54
243,116	6,46
243,386	-10,54
243,655	-8,54
243,924	-4,54
244,194	7,46
244,463	-6,54
244,732	8,46
245,001	-11,54
245,271	134,46
245,54	15,46
245,809	-16,54
246,078	-20,54
246,347	-2,54
246,617	-23,54
246,886	-12,54
247,155	12,46
247,424	10,46
247,693	-17,54
247,963	1,46
248,232	6,46
248,501	18,46
248,77	-20,54
249,039	8,46
249,308	-0,54
249,577	0,46
249,846	-18,54
250,115	-13,54
250,385	15,46
250,654	-10,54
250,923	-1,54
251,192	-1,54
251,461	-7,54
251,73	-3,54
251,999	-12,54
252,268	-2,54
252,537	5,46
252,806	-0,54
253,075	-4,54
253,344	-5,54
253,613	33,46
253,882	-5,54
254,151	-7,54
254,42	-2,54
254,689	-16,54
254,958	-16,54
255,227	-13,54
255,496	-5,54
255,765	-0,54
256,033	-12,54
256,302	2,46
256,571	-13,54
256,84	-18,54
257,109	-8,54
257,378	-24,54
257,647	-23,54
257,916	-6,54
258,184	9,46
258,453	-12,54
258,722	9,46
258,991	-38,54
259,26	15,46
259,529	-9,54
259,797	8,46
260,066	12,46
260,335	-3,54
260,604	-5,54
260,873	9,46
261,141	-14,54
261,41	-23,54
261,679	-2,54
261,948	-8,54
262,216	-15,54
262,485	14,46
262,754	-24,54
263,022	-4,54
263,291	8,46
263,56	-18,54
263,829	-24,54
264,097	7,46
264,366	18,46
264,635	-20,54
264,903	-15,54
265,172	-5,54
265,44	13,46
265,709	3,46
265,978	7,46
266,246	19,46
266,515	6,46
266,784	-13,54
267,052	-7,54
267,321	-8,54
267,589	176,46
267,858	5,46
268,126	-14,54
268,395	0,46
268,663	11,46
268,932	29,46
269,201	-12,54
269,469	11,46
269,738	12,46
270,006	13,46
270,275	23,46
270,543	-13,54
270,811	-12,54
271,08	-18,54
271,348	15,46
271,617	-1,54
271,885	-1,54
272,154	-17,54
272,422	-5,54
272,691	5,46
272,959	46,46
273,227	16,46
273,496	-19,54
273,764	-12,54
274,033	28,46
274,301	-14,54
274,569	-7,54
274,838	-2,54
275,106	-0,54
275,374	3,46
275,643	0,46
275,911	-6,54
276,179	2,46
276,448	23,46
276,716	7,46
276,984	-22,54
277,252	-2,54
277,521	1,46
277,789	-20,54
278,057	-17,54
278,325	-10,54
278,594	25,46
278,862	12,46
279,13	-4,54
279,398	1,46
279,667	10,46
279,935	9,46
280,203	-8,54
280,471	19,46
280,739	8,46
281,008	-7,54
281,276	-6,54
281,544	15,46
281,812	-27,54
282,08	-9,54
282,348	2,46
282,616	7,46
282,884	-4,54
283,153	-0,54
283,421	2,46
283,689	1,46
283,957	-11,54
284,225	-9,54
284,493	1,46
284,761	16,46
285,029	5,46
285,297	-12,54
285,565	-33,54
285,833	-9,54
286,101	-16,54
286,369	-31,54
286,637	-16,54
286,905	-35,54
287,173	-0,54
287,441	-19,54
287,709	-3,54
287,977	25,46
288,245	-20,54
288,513	1,46
288,781	-6,54
289,049	5,46
289,317	-6,54
289,585	-21,54
289,853	6,46
290,12	16,46
290,388	-3,54
290,656	-13,54
290,924	-29,54
291,192	-22,54
291,46	-18,54
291,728	-17,54
291,996	-8,54
292,263	31,46
292,531	10,46
292,799	-25,54
293,067	-16,54
293,335	2,46
293,602	-9,54
293,87	11,46
294,138	8,46
294,406	-12,54
294,673	-1,54
294,941	2,46
295,209	-9,54
295,477	1,46
295,744	12,46
296,012	-5,54
296,28	-1,54
296,548	-12,54
296,815	-3,54
297,083	6,46
297,351	17,46
297,618	10,46
297,886	-18,54
298,154	-1,54
298,421	-0,54
298,689	-4,54
298,956	-18,54
299,224	-11,54
299,492	-9,54
299,759	-2,54
300,027	-2,54
300,294	3,46
300,562	6,46
300,83	3,46
301,097	2,46
301,365	-18,54
301,632	-7,54
301,9	7,46
302,167	8,46
302,435	4,46
302,702	11,46
302,97	0,46
303,237	17,46
303,505	8,46
303,772	6,46
304,04	-19,54
304,307	-32,54
304,575	-4,54
304,842	-9,54
305,11	22,46
305,377	0,46
305,645	6,46
305,912	-17,54
306,179	-6,54
306,447	-2,54
306,714	-4,54
306,982	-23,54
307,249	5,46
307,516	-2,54
307,784	-18,54
308,051	-20,54
308,318	18,46
308,586	15,46
308,853	-10,54
309,12	-20,54
309,388	22,46
309,655	14,46
309,922	-10,54
310,19	-24,54
310,457	-6,54
310,724	-0,54
310,991	-29,54
311,259	-1,54
311,526	4,46
311,793	-0,54
312,06	-6,54
312,328	1,46
312,595	-14,54
312,862	-9,54
313,129	-4,54
313,396	-21,54
313,664	14,46
313,931	-1,54
314,198	11,46
314,465	-13,54
314,732	-16,54
314,999	2,46
315,266	-4,54
315,534	5,46
315,801	-7,54
316,068	-4,54
316,335	-11,54
316,602	-15,54
316,869	-5,54
317,136	7,46
317,403	-2,54
317,67	2,46
317,937	13,46
318,204	-15,54
318,471	3,46
318,738	17,46
319,005	11,46
319,272	-13,54
319,539	-4,54
319,806	4,46
320,073	-1,54
320,34	-2,54
320,607	-2,54
320,874	21,46
321,141	-18,54
321,408	41,46
321,675	-1,54
321,942	18,46
322,209	3,46
322,476	-29,54
322,743	-4,54
323,01	11,46
323,277	-17,54
323,544	-7,54
323,81	2,46
324,077	12,46
324,344	3,46
324,611	11,46
324,878	-11,54
325,145	-3,54
325,412	6,46
325,678	-28,54
325,945	-2,54
326,212	-4,54
326,479	30,46
326,746	3,46
327,012	-5,54
327,279	-26,54
327,546	-3,54
327,813	0,46
328,079	-4,54
328,346	-5,54
328,613	20,46
328,88	8,46
329,146	9,46
329,413	14,46
329,68	-4,54
329,946	-10,54
330,213	-21,54
330,48	-6,54
330,746	-17,54
331,013	15,46
331,28	-16,54
331,546	-3,54
331,813	-13,54
332,08	-21,54
332,346	-6,54
332,613	-9,54
332,879	-5,54
333,146	7,46
333,413	10,46
333,679	-9,54
333,946	-8,54
334,212	6,46
334,479	3,46
334,745	-6,54
335,012	4,46
335,278	-22,54
335,545	6,46
335,811	-17,54
336,078	17,46
336,344	10,46
336,611	-8,54
336,877	-7,54
337,144	-11,54
337,41	-19,54
337,677	20,46
337,943	26,46
338,21	-7,54
338,476	-7,54
338,742	6,46
339,009	0,46
339,275	-28,54
339,542	-14,54
339,808	-3,54
340,074	-3,54
340,341	-22,54
340,607	-2,54
340,873	-1,54
341,14	-3,54
341,406	-6,54
341,672	-13,54
341,939	-9,54
342,205	14,46
342,471	-12,54
342,738	-17,54
343,004	6,46
343,27	-3,54
343,537	34,46
343,803	-0,54
344,069	-25,54
344,335	-24,54
344,602	0,46
344,868	-5,54
345,134	-1,54
345,4	3,46
345,666	8,46
345,933	10,46
346,199	4,46
346,465	3,46
346,731	-1,54
346,997	-19,54
347,263	-3,54
347,53	23,46
347,796	-25,54
348,062	-7,54
348,328	17,46
348,594	-7,54
348,86	-6,54
349,126	2,46
349,392	5,46
349,659	13,46
349,925	-17,54
350,191	-21,54
350,457	-0,54
350,723	-14,54
350,989	-8,54
351,255	-10,54
351,521	-0,54
351,787	-1,54
352,053	-10,54
352,319	15,46
352,585	13,46
352,851	-17,54
353,117	-30,54
353,383	-6,54
353,649	-20,54
353,915	-14,54
354,181	26,46
354,447	6,46
354,713	-5,54
354,978	11,46
355,244	-3,54
355,51	-36,54
355,776	4,46
356,042	14,46
356,308	-1,54
356,574	-6,54
356,84	-2,54
357,106	1,46
357,371	-16,54
357,637	2,46
357,903	5,46
358,169	-8,54
358,435	-12,54
358,701	-4,54
358,966	-4,54
359,232	9,46
359,498	-14,54
359,764	15,46
360,029	-5,54
360,295	-7,54
360,561	-29,54
360,827	6,46
361,092	-12,54
361,358	2,46
361,624	2,46
361,89	-13,54
362,155	-5,54
362,421	3,46
362,687	-3,54
362,952	5,46
363,218	15,46
363,484	4,46
363,749	4,46
364,015	9,46
364,281	4,46
364,546	-13,54
364,812	-4,54
365,077	-0,54
365,343	-10,54
365,609	8,46
365,874	-7,54
366,14	-4,54
366,405	-8,54
366,671	-0,54
366,936	-4,54
367,202	-17,54
367,467	12,46
367,733	5,46
367,999	12,46
368,264	9,46
368,53	-0,54
368,795	-16,54
369,061	-7,54
369,326	1,46
369,591	-3,54
369,857	-1,54
370,122	-6,54
370,388	-16,54
370,653	2,46
370,919	-22,54
371,184	-11,54
371,45	14,46
371,715	0,46
371,98	10,46
372,246	-1,54
372,511	13,46
372,776	13,46
373,042	13,46
373,307	-29,54
373,573	-31,54
373,838	-6,54
374,103	20,46
374,369	10,46
374,634	-14,54
374,899	-1,54
375,164	-12,54
375,43	4,46
375,695	0,46
375,96	-13,54
376,226	13,46
376,491	10,46
376,756	20,46
377,021	11,46
377,286	-5,54
377,552	2,46
377,817	-0,54
378,082	3,46
378,347	-0,54
378,613	13,46
378,878	34,46
379,143	-0,54
379,408	-5,54
379,673	-12,54
379,938	-7,54
380,203	5,46
380,469	16,46
380,734	31,46
380,999	3,46
381,264	-0,54
381,529	-3,54
381,794	6,46
382,059	18,46
382,324	6,46
382,589	-23,54
382,854	-15,54
383,119	-4,54
383,385	-17,54
383,65	-26,54
383,915	-0,54
384,18	-6,54
384,445	-10,54
384,71	11,46
384,975	-0,54
385,24	16,46
385,505	-9,54
385,77	0,46
386,034	-12,54
386,299	2,46
386,564	5,46
386,829	-0,54
387,094	16,46
387,359	-12,54
387,624	-13,54
387,889	12,46
388,154	-4,54
388,419	5,46
388,684	-5,54
388,949	-4,54
389,213	-8,54
389,478	-10,54
389,743	-6,54
390,008	3,46
390,273	27,46
390,538	8,46
390,802	-1,54
391,067	5,46
391,332	-16,54
391,597	-10,54
391,862	-8,54
392,126	12,46
392,391	27,46
392,656	-16,54
392,921	-1,54
393,185	-5,54
393,45	9,46
393,715	-10,54
393,979	-21,54
394,244	-28,54
394,509	5,46
394,774	47,46
395,038	6,46
395,303	-15,54
395,568	21,46
395,832	5,46
396,097	10,46
396,361	0,46
396,626	-12,54
396,891	-10,54
397,155	3,46
397,42	8,46
397,685	-1,54
397,949	-2,54
398,214	5,46
398,478	-1,54
398,743	-9,54
399,007	5,46
399,272	2,46
399,536	-8,54
399,801	9,46
400,066	-9,54
400,33	-14,54
400,595	-3,54
400,859	-5,54
401,124	15,46
401,388	-1,54
401,652	-16,54
401,917	41,46
402,181	-21,54
402,446	-2,54
402,71	1,46
402,975	7,46
403,239	3,46
403,504	10,46
403,768	-6,54
404,032	5,46
404,297	24,46
404,561	-3,54
404,826	19,46
405,09	24,46
405,354	-4,54
405,619	15,46
405,883	2,46
406,147	16,46
406,412	-9,54
406,676	-10,54
406,94	12,46
407,205	16,46
407,469	25,46
407,733	13,46
407,997	6,46
408,262	10,46
408,526	-8,54
408,79	-0,54
409,054	-25,54
409,319	3,46
409,583	-11,54
409,847	-22,54
410,111	-16,54
410,375	23,46
410,64	8,46
410,904	2,46
411,168	-2,54
411,432	3,46
411,696	-18,54
411,96	-9,54
412,225	11,46
412,489	17,46
412,753	1,46
413,017	-13,54
413,281	2,46
413,545	15,46
413,809	-3,54
414,073	0,46
414,337	-22,54
414,602	-4,54
414,866	-16,54
415,13	18,46
415,394	-1,54
415,658	-5,54
415,922	10,46
416,186	-4,54
416,45	1,46
416,714	19,46
416,978	-15,54
417,242	0,46
417,506	13,46
417,77	12,46
418,034	-9,54
418,298	-23,54
418,562	30,46
418,825	9,46
419,089	7,46
419,353	-1,54
419,617	7,46
419,881	-12,54
420,145	-17,54
420,409	2,46
420,673	5,46
420,937	-26,54
421,2	1,46
421,464	6,46
421,728	13,46
421,992	10,46
422,256	-13,54
422,52	-4,54
422,783	3,46
423,047	5,46
423,311	8,46
423,575	4,46
423,839	-20,54
424,102	-42,54
424,366	-16,54
424,63	-0,54
424,894	-8,54
425,157	2,46
425,421	-7,54
425,685	-6,54
425,949	-12,54
426,212	-6,54
426,476	-13,54
426,74	-13,54
427,003	10,46
427,267	1,46
427,531	11,46
427,794	-21,54
428,058	-8,54
428,322	-25,54
428,585	12,46
428,849	3,46
429,112	10,46
429,376	32,46
429,64	33,46
429,903	-9,54
430,167	18,46
430,43	-14,54
430,694	-12,54
430,957	-2,54
431,221	7,46
431,485	-17,54
431,748	-18,54
432,012	-12,54
432,275	14,46
432,539	15,46
432,802	35,46
433,066	5,46
433,329	-30,54
433,593	-10,54
433,856	28,46
434,119	4,46
434,383	9,46
434,646	-22,54
434,91	19,46
435,173	-18,54
435,437	3,46
435,7	-6,54
435,963	-9,54
436,227	3,46
436,49	-34,54
436,753	17,46
437,017	0,46
437,28	-10,54
437,544	1,46
437,807	9,46
438,07	-10,54
438,334	-0,54
438,597	-17,54
438,86	5,46
439,123	-3,54
439,387	18,46
439,65	-7,54
439,913	2,46
440,177	-20,54
440,44	-7,54
440,703	-3,54
440,966	5,46
441,229	5,46
441,493	1,46
441,756	-15,54
442,019	5,46
442,282	9,46
442,545	3,46
442,809	37,46
443,072	29,46
443,335	8,46
443,598	17,46
443,861	21,46
444,124	3,46
444,388	25,46
444,651	20,46
444,914	36,46
445,177	25,46
445,44	22,46
445,703	21,46
445,966	28,46
446,229	20,46
446,492	35,46
446,755	43,46
447,018	18,46
447,281	37,46
447,544	54,46
447,807	50,46
448,07	48,46
448,333	22,46
448,596	47,46
448,859	68,46
449,122	68,46
449,385	52,46
449,648	46,46
449,911	70,46
450,174	65,46
450,437	64,46
450,7	77,46
450,963	69,46
451,226	83,46
451,489	82,46
451,752	110,46
452,015	86,46
452,277	72,46
452,54	127,46
452,803	106,46
453,066	108,46
453,329	133,46
453,592	123,46
453,855	113,46
454,117	140,46
454,38	145,46
454,643	152,46
454,906	165,46
455,169	159,46
455,431	161,46
455,694	185,46
455,957	206,46
456,22	216,46
456,482	208,46
456,745	183,46
457,008	202,46
457,271	221,46
457,533	255,46
457,796	222,46
458,059	220,46
458,321	190,46
458,584	197,46
458,847	204,46
459,109	197,46
459,372	223,46
459,635	208,46
459,897	225,46
460,16	245,46
460,423	255,46
460,685	228,46
460,948	234,46
461,21	209,46
461,473	210,46
461,735	194,46
461,998	225,46
462,261	229,46
462,523	205,46
462,786	235,46
463,048	206,46
463,311	209,46
463,573	245,46
463,836	227,46
464,098	239,46
464,361	220,46
464,623	196,46
464,886	219,46
465,148	242,46
465,411	221,46
465,673	226,46
465,936	230,46
466,198	243,46
466,46	218,46
466,723	209,46
466,985	202,46
467,248	198,46
467,51	222,46
467,772	233,46
468,035	231,46
468,297	222,46
468,56	203,46
468,822	234,46
469,084	227,46
469,347	220,46
469,609	210,46
469,871	229,46
470,133	239,46
470,396	227,46
470,658	207,46
470,92	214,46
471,183	239,46
471,445	224,46
471,707	218,46
471,969	225,46
472,232	191,46
472,494	229,46
472,756	195,46
473,018	215,46
473,281	233,46
473,543	237,46
473,805	197,46
474,067	215,46
474,329	229,46
474,591	217,46
474,854	202,46
475,116	209,46
475,378	203,46
475,64	194,46
475,902	186,46
476,164	183,46
476,426	176,46
476,688	181,46
476,951	160,46
477,213	198,46
477,475	192,46
477,737	162,46
477,999	155,46
478,261	180,46
478,523	154,46
478,785	168,46
479,047	155,46
479,309	150,46
479,571	173,46
479,833	160,46
480,095	143,46
480,357	147,46
480,619	139,46
480,881	106,46
481,143	126,46
481,405	97,46
481,667	126,46
481,929	135,46
482,191	126,46
482,452	111,46
482,714	131,46
482,976	112,46
483,238	121,46
483,5	94,46
483,762	110,46
484,024	95,46
484,286	119,46
484,547	127,46
484,809	128,46
485,071	110,46
485,333	91,46
485,595	103,46
485,857	88,46
486,118	75,46
486,38	123,46
486,642	83,46
486,904	79,46
487,165	75,46
487,427	71,46
487,689	104,46
487,951	87,46
488,212	101,46
488,474	74,46
488,736	65,46
488,998	97,46
489,259	105,46
489,521	74,46
489,783	78,46
490,044	62,46
490,306	66,46
490,568	86,46
490,829	76,46
491,091	63,46
491,353	55,46
491,614	72,46
491,876	46,46
492,137	72,46
492,399	89,46
492,661	73,46
492,922	61,46
493,184	46,46
493,445	64,46
493,707	61,46
493,968	71,46
494,23	56,46
494,491	64,46
494,753	66,46
495,014	65,46
495,276	43,46
495,537	36,46
495,799	38,46
496,06	53,46
496,322	44,46
496,583	65,46
496,845	34,46
497,106	33,46
497,368	26,46
497,629	58,46
497,89	40,46
498,152	79,46
498,413	47,46
498,675	52,46
498,936	33,46
499,197	25,46
499,459	32,46
499,72	43,46
499,981	47,46
500,243	54,46
500,504	46,46
500,765	22,46
501,027	35,46
501,288	39,46
501,549	47,46
501,811	29,46
502,072	31,46
502,333	63,46
502,594	36,46
502,856	18,46
503,117	42,46
503,378	40,46
503,639	52,46
503,901	22,46
504,162	23,46
504,423	46,46
504,684	41,46
504,945	28,46
505,207	43,46
505,468	36,46
505,729	12,46
505,99	14,46
506,251	37,46
506,512	22,46
506,774	25,46
507,035	19,46
507,296	13,46
507,557	35,46
507,818	23,46
508,079	30,46
508,34	16,46
508,601	6,46
508,862	22,46
509,123	30,46
509,384	3,46
509,645	8,46
509,906	11,46
510,167	14,46
510,428	19,46
510,689	-0,54
510,95	-4,54
511,211	23,46
511,472	14,46
511,733	19,46
511,994	24,46
512,255	2,46
512,516	21,46
512,777	14,46
513,038	23,46
513,299	-20,54
513,56	22,46
513,821	10,46
514,082	13,46
514,343	13,46
514,603	8,46
514,864	9,46
515,125	30,46
515,386	22,46
515,647	15,46
515,908	6,46
516,169	8,46
516,429	12,46
516,69	-4,54
516,951	3,46
517,212	18,46
517,473	-1,54
517,733	-7,54
517,994	0,46
518,255	-4,54
518,516	2,46
518,776	-0,54
519,037	-1,54
519,298	-1,54
519,559	36,46
519,819	-2,54
520,08	12,46
520,341	-13,54
520,601	-8,54
520,862	18,46
521,123	-2,54
521,383	2,46
521,644	-14,54
521,905	1,46
522,165	21,46
522,426	-1,54
522,686	10,46
522,947	-13,54
523,208	19,46
523,468	-7,54
523,729	15,46
523,989	4,46
524,25	14,46
524,51	26,46
524,771	12,46
525,032	-5,54
525,292	-5,54
525,553	16,46
525,813	-20,54
526,074	-15,54
526,334	11,46
526,595	-14,54
526,855	-5,54
527,116	-15,54
527,376	6,46
527,636	-13,54
527,897	16,46
528,157	13,46
528,418	13,46
528,678	-4,54
528,939	13,46
529,199	22,46
529,459	1,46
529,72	-4,54
529,98	6,46
530,24	21,46
530,501	-20,54
530,761	14,46
531,022	10,46
531,282	-17,54
531,542	-6,54
531,803	-6,54
532,063	-38,54
532,323	-12,54
532,583	9,46
532,844	-5,54
533,104	-12,54
533,364	-8,54
533,624	12,46
533,885	-7,54
534,145	-16,54
534,405	6,46
534,665	3,46
534,926	10,46
535,186	-7,54
535,446	5,46
535,706	-6,54
535,966	10,46
536,227	3,46
536,487	3,46
536,747	-9,54
537,007	-1,54
537,267	0,46
537,527	-9,54
537,787	6,46
538,048	-12,54
538,308	-6,54
538,568	-7,54
538,828	-19,54
539,088	-6,54
539,348	-21,54
539,608	-16,54
539,868	10,46
540,128	-4,54
540,388	-12,54
540,648	13,46
540,908	-13,54
541,168	14,46
541,428	6,46
541,688	-7,54
541,948	-9,54
