Data from HR4C34221__9__15-19-13-249.txt Node

Date: Fri Apr 07 15:19:13 MSK 2023
User: 123
Spectrometer: HR4C3422
Trigger mode: 4
Integration Time (sec): 1,320000E-1
Scans to average: 1
Electric dark correction enabled: true
Nonlinearity correction enabled: false
Boxcar width: 0
XAxis mode: Wavelengths
Number of Pixels in Spectrum: 3648
>>>>>Begin Spectral Data<<<<<
195,326	-64,46
195,597	-64,46
195,868	-64,46
196,139	-53,46
196,409	8,54
196,68	3,54
196,951	7,54
197,221	6,54
197,492	0,54
197,762	0,54
198,033	4,54
198,304	-13,46
198,574	-2,46
198,845	9,54
199,116	-16,46
199,386	-4,46
199,657	-7,46
199,927	11,54
200,198	3,54
200,468	1,54
200,739	19,54
201,009	12,54
201,28	10,54
201,551	1,54
201,821	5,54
202,092	-0,46
202,362	-3,46
202,633	-6,46
202,903	-17,46
203,174	-6,46
203,444	-7,46
203,714	2,54
203,985	5,54
204,255	2,54
204,526	58,54
204,796	-10,46
205,067	20,54
205,337	9,54
205,607	4,54
205,878	54,54
206,148	15,54
206,419	-13,46
206,689	-13,46
206,959	3,54
207,23	-11,46
207,5	8,54
207,77	19,54
208,041	0,54
208,311	13,54
208,581	0,54
208,852	3,54
209,122	2,54
209,392	4,54
209,663	-9,46
209,933	-1,46
210,203	-9,46
210,473	-11,46
210,744	-13,46
211,014	34,54
211,284	3,54
211,554	6,54
211,825	4,54
212,095	-9,46
212,365	-11,46
212,635	9,54
212,905	15,54
213,176	10,54
213,446	35,54
213,716	5,54
213,986	13,54
214,256	11,54
214,526	6,54
214,797	-3,46
215,067	-3,46
215,337	1,54
215,607	-5,46
215,877	13,54
216,147	2,54
216,417	-15,46
216,687	3,54
216,957	8,54
217,227	15,54
217,497	-21,46
217,767	-6,46
218,038	32,54
218,308	-1,46
218,578	-10,46
218,848	2,54
219,118	-2,46
219,388	13,54
219,658	4,54
219,928	19,54
220,198	14,54
220,468	1,54
220,737	-15,46
221,007	14,54
221,277	4,54
221,547	19,54
221,817	17,54
222,087	5,54
222,357	6,54
222,627	15,54
222,897	14,54
223,167	-16,46
223,437	-7,46
223,707	21,54
223,976	22,54
224,246	-2,46
224,516	12,54
224,786	15,54
225,056	6,54
225,326	-10,46
225,595	4,54
225,865	-14,46
226,135	-0,46
226,405	3,54
226,675	24,54
226,944	29,54
227,214	-1,46
227,484	0,54
227,754	-3,46
228,023	7,54
228,293	1,54
228,563	8,54
228,833	8,54
229,102	15,54
229,372	-5,46
229,642	14,54
229,911	22,54
230,181	-0,46
230,451	-2,46
230,72	-1,46
230,99	-7,46
231,26	6,54
231,529	16,54
231,799	15,54
232,069	14,54
232,338	30,54
232,608	13,54
232,877	-0,46
233,147	-1,46
233,417	0,54
233,686	6,54
233,956	-0,46
234,225	-12,46
234,495	-17,46
234,764	-8,46
235,034	-4,46
235,304	-16,46
235,573	118,54
235,843	10,54
236,112	-13,46
236,382	-2,46
236,651	2,54
236,921	3,54
237,19	-15,46
237,46	-13,46
237,729	-7,46
237,998	6,54
238,268	-9,46
238,537	31,54
238,807	24,54
239,076	0,54
239,346	-12,46
239,615	2,54
239,884	2,54
240,154	14,54
240,423	-11,46
240,693	-22,46
240,962	-0,46
241,231	9,54
241,501	6,54
241,77	-5,46
242,039	-4,46
242,309	-8,46
242,578	-4,46
242,847	4,54
243,116	1,54
243,386	0,54
243,655	2,54
243,924	-0,46
244,194	-4,46
244,463	2,54
244,732	2,54
245,001	4,54
245,271	102,54
245,54	10,54
245,809	-18,46
246,078	-9,46
246,347	-13,46
246,617	-8,46
246,886	-6,46
247,155	5,54
247,424	2,54
247,693	-9,46
247,963	-16,46
248,232	6,54
248,501	21,54
248,77	-9,46
249,039	4,54
249,308	18,54
249,577	14,54
249,846	-9,46
250,115	-7,46
250,385	12,54
250,654	-2,46
250,923	11,54
251,192	1,54
251,461	-1,46
251,73	-2,46
251,999	5,54
252,268	6,54
252,537	6,54
252,806	-15,46
253,075	-10,46
253,344	3,54
253,613	22,54
253,882	-2,46
254,151	4,54
254,42	-3,46
254,689	-13,46
254,958	-11,46
255,227	3,54
255,496	13,54
255,765	8,54
256,033	-4,46
256,302	1,54
256,571	-14,46
256,84	-3,46
257,109	-6,46
257,378	-13,46
257,647	-16,46
257,916	-11,46
258,184	8,54
258,453	-23,46
258,722	18,54
258,991	-11,46
259,26	-1,46
259,529	-23,46
259,797	7,54
260,066	4,54
260,335	7,54
260,604	-2,46
260,873	-12,46
261,141	11,54
261,41	-4,46
261,679	-9,46
261,948	11,54
262,216	-12,46
262,485	10,54
262,754	-5,46
263,022	0,54
263,291	21,54
263,56	-13,46
263,829	-16,46
264,097	-5,46
264,366	-1,46
264,635	-3,46
264,903	-7,46
265,172	11,54
265,44	4,54
265,709	-0,46
265,978	1,54
266,246	7,54
266,515	-2,46
266,784	1,54
267,052	-2,46
267,321	0,54
267,589	149,54
267,858	15,54
268,126	-6,46
268,395	-5,46
268,663	14,54
268,932	6,54
269,201	-7,46
269,469	11,54
269,738	-3,46
270,006	-1,46
270,275	3,54
270,543	-9,46
270,811	21,54
271,08	5,54
271,348	19,54
271,617	-5,46
271,885	-11,46
272,154	-20,46
272,422	-6,46
272,691	-8,46
272,959	23,54
273,227	7,54
273,496	5,54
273,764	3,54
274,033	21,54
274,301	-2,46
274,569	-0,46
274,838	3,54
275,106	5,54
275,374	23,54
275,643	31,54
275,911	-14,46
276,179	11,54
276,448	19,54
276,716	-0,46
276,984	-3,46
277,252	9,54
277,521	-4,46
277,789	-1,46
278,057	-10,46
278,325	-9,46
278,594	18,54
278,862	12,54
279,13	0,54
279,398	-3,46
279,667	-6,46
279,935	-5,46
280,203	0,54
280,471	11,54
280,739	-5,46
281,008	-1,46
281,276	0,54
281,544	0,54
281,812	-19,46
282,08	5,54
282,348	1,54
282,616	-4,46
282,884	-1,46
283,153	18,54
283,421	-2,46
283,689	2,54
283,957	-15,46
284,225	-3,46
284,493	-4,46
284,761	12,54
285,029	1,54
285,297	-14,46
285,565	-15,46
285,833	-13,46
286,101	-17,46
286,369	-28,46
286,637	0,54
286,905	-17,46
287,173	-11,46
287,441	6,54
287,709	9,54
287,977	18,54
288,245	-20,46
288,513	3,54
288,781	-6,46
289,049	6,54
289,317	-9,46
289,585	-4,46
289,853	22,54
290,12	9,54
290,388	-2,46
290,656	-12,46
290,924	-13,46
291,192	-6,46
291,46	-30,46
291,728	-7,46
291,996	-16,46
292,263	9,54
292,531	-17,46
292,799	-20,46
293,067	6,54
293,335	7,54
293,602	2,54
293,87	7,54
294,138	9,54
294,406	5,54
294,673	12,54
294,941	10,54
295,209	-8,46
295,477	9,54
295,744	8,54
296,012	2,54
296,28	-8,46
296,548	-22,46
296,815	-14,46
297,083	-2,46
297,351	-3,46
297,618	7,54
297,886	-3,46
298,154	2,54
298,421	-1,46
298,689	-9,46
298,956	-3,46
299,224	3,54
299,492	-19,46
299,759	-7,46
300,027	5,54
300,294	7,54
300,562	-10,46
300,83	9,54
301,097	-1,46
301,365	-18,46
301,632	-12,46
301,9	-4,46
302,167	-2,46
302,435	-8,46
302,702	10,54
302,97	-3,46
303,237	-1,46
303,505	8,54
303,772	2,54
304,04	-14,46
304,307	-25,46
304,575	-5,46
304,842	-11,46
305,11	21,54
305,377	-3,46
305,645	8,54
305,912	-20,46
306,179	-9,46
306,447	-2,46
306,714	-4,46
306,982	-4,46
307,249	4,54
307,516	-8,46
307,784	-5,46
308,051	-9,46
308,318	25,54
308,586	-6,46
308,853	-5,46
309,12	-14,46
309,388	12,54
309,655	10,54
309,922	-10,46
310,19	-11,46
310,457	-0,46
310,724	5,54
310,991	-7,46
311,259	-1,46
311,526	5,54
311,793	-11,46
312,06	3,54
312,328	16,54
312,595	-2,46
312,862	-13,46
313,129	7,54
313,396	0,54
313,664	0,54
313,931	1,54
314,198	-4,46
314,465	-3,46
314,732	-7,46
314,999	8,54
315,266	5,54
315,534	9,54
315,801	6,54
316,068	-1,46
316,335	-0,46
316,602	-21,46
316,869	-10,46
317,136	11,54
317,403	22,54
317,67	5,54
317,937	20,54
318,204	-3,46
318,471	-9,46
318,738	22,54
319,005	24,54
319,272	-0,46
319,539	0,54
319,806	3,54
320,073	-5,46
320,34	24,54
320,607	-11,46
320,874	19,54
321,141	-4,46
321,408	26,54
321,675	-3,46
321,942	17,54
322,209	-1,46
322,476	-29,46
322,743	-14,46
323,01	17,54
323,277	-24,46
323,544	13,54
323,81	11,54
324,077	-1,46
324,344	-13,46
324,611	-2,46
324,878	6,54
325,145	-10,46
325,412	-8,46
325,678	-9,46
325,945	-10,46
326,212	-13,46
326,479	13,54
326,746	0,54
327,012	9,54
327,279	-6,46
327,546	3,54
327,813	-9,46
328,079	1,54
328,346	-8,46
328,613	19,54
328,88	13,54
329,146	9,54
329,413	-2,46
329,68	2,54
329,946	-4,46
330,213	-9,46
330,48	-11,46
330,746	-13,46
331,013	15,54
331,28	-9,46
331,546	-6,46
331,813	-18,46
332,08	-11,46
332,346	-0,46
332,613	-7,46
332,879	-9,46
333,146	6,54
333,413	-4,46
333,679	-13,46
333,946	-5,46
334,212	-7,46
334,479	-11,46
334,745	-1,46
335,012	1,54
335,278	-27,46
335,545	-2,46
335,811	-23,46
336,078	22,54
336,344	-8,46
336,611	8,54
336,877	-2,46
337,144	-4,46
337,41	-11,46
337,677	10,54
337,943	10,54
338,21	-1,46
338,476	-0,46
338,742	17,54
339,009	8,54
339,275	-13,46
339,542	-19,46
339,808	0,54
340,074	2,54
340,341	-7,46
340,607	11,54
340,873	-0,46
341,14	-6,46
341,406	-1,46
341,672	9,54
341,939	-12,46
342,205	7,54
342,471	-2,46
342,738	-21,46
343,004	-1,46
343,27	-5,46
343,537	23,54
343,803	1,54
344,069	3,54
344,335	-10,46
344,602	-4,46
344,868	-12,46
345,134	-2,46
345,4	9,54
345,666	5,54
345,933	-5,46
346,199	0,54
346,465	10,54
346,731	13,54
346,997	-11,46
347,263	-10,46
347,53	14,54
347,796	-11,46
348,062	16,54
348,328	22,54
348,594	-1,46
348,86	-1,46
349,126	4,54
349,392	-10,46
349,659	-2,46
349,925	-10,46
350,191	-13,46
350,457	-8,46
350,723	-16,46
350,989	15,54
351,255	0,54
351,521	1,54
351,787	-2,46
352,053	-8,46
352,319	2,54
352,585	-2,46
352,851	-5,46
353,117	-17,46
353,383	-5,46
353,649	-13,46
353,915	-10,46
354,181	9,54
354,447	10,54
354,713	7,54
354,978	12,54
355,244	-6,46
355,51	-24,46
355,776	-2,46
356,042	4,54
356,308	0,54
356,574	3,54
356,84	-7,46
357,106	-7,46
357,371	-11,46
357,637	-5,46
357,903	-12,46
358,169	-12,46
358,435	-14,46
358,701	-10,46
358,966	3,54
359,232	8,54
359,498	-2,46
359,764	6,54
360,029	-5,46
360,295	-11,46
360,561	-28,46
360,827	-9,46
361,092	3,54
361,358	7,54
361,624	2,54
361,89	-26,46
362,155	-6,46
362,421	3,54
362,687	3,54
362,952	-5,46
363,218	25,54
363,484	-1,46
363,749	9,54
364,015	8,54
364,281	25,54
364,546	3,54
364,812	-5,46
365,077	-2,46
365,343	0,54
365,609	12,54
365,874	18,54
366,14	13,54
366,405	-3,46
366,671	0,54
366,936	-14,46
367,202	-16,46
367,467	13,54
367,733	9,54
367,999	3,54
368,264	-9,46
368,53	-8,46
368,795	0,54
369,061	-1,46
369,326	-11,46
369,591	-21,46
369,857	-3,46
370,122	-11,46
370,388	-18,46
370,653	-1,46
370,919	-8,46
371,184	-9,46
371,45	9,54
371,715	12,54
371,98	-9,46
372,246	0,54
372,511	6,54
372,776	4,54
373,042	4,54
373,307	-4,46
373,573	-29,46
373,838	-1,46
374,103	-0,46
374,369	16,54
374,634	4,54
374,899	-6,46
375,164	-10,46
375,43	11,54
375,695	17,54
375,96	2,54
376,226	5,54
376,491	10,54
376,756	-10,46
377,021	0,54
377,286	-8,46
377,552	13,54
377,817	10,54
378,082	24,54
378,347	13,54
378,613	36,54
378,878	35,54
379,143	2,54
379,408	13,54
379,673	-3,46
379,938	-5,46
380,203	-10,46
380,469	-3,46
380,734	37,54
380,999	7,54
381,264	-1,46
381,529	-8,46
381,794	-5,46
382,059	-0,46
382,324	0,54
382,589	3,54
382,854	-0,46
383,119	0,54
383,385	-7,46
383,65	-5,46
383,915	-6,46
384,18	-11,46
384,445	-5,46
384,71	7,54
384,975	0,54
385,24	14,54
385,505	-14,46
385,77	-1,46
386,034	10,54
386,299	4,54
386,564	8,54
386,829	1,54
387,094	-0,46
387,359	-16,46
387,624	-11,46
387,889	8,54
388,154	-7,46
388,419	-4,46
388,684	-5,46
388,949	6,54
389,213	6,54
389,478	-25,46
389,743	-11,46
390,008	-12,46
390,273	30,54
390,538	-11,46
390,802	-5,46
391,067	15,54
391,332	-27,46
391,597	-6,46
391,862	0,54
392,126	-3,46
392,391	6,54
392,656	-16,46
392,921	-6,46
393,185	-4,46
393,45	-1,46
393,715	-2,46
393,979	5,54
394,244	-25,46
394,509	5,54
394,774	35,54
395,038	16,54
395,303	-4,46
395,568	12,54
395,832	-3,46
396,097	-2,46
396,361	7,54
396,626	-24,46
396,891	-3,46
397,155	13,54
397,42	18,54
397,685	-10,46
397,949	-1,46
398,214	-4,46
398,478	-0,46
398,743	1,54
399,007	1,54
399,272	10,54
399,536	-7,46
399,801	-0,46
400,066	-13,46
400,33	-7,46
400,595	-7,46
400,859	-1,46
401,124	-2,46
401,388	24,54
401,652	2,54
401,917	29,54
402,181	-11,46
402,446	-4,46
402,71	2,54
402,975	1,54
403,239	13,54
403,504	-7,46
403,768	-0,46
404,032	-7,46
404,297	14,54
404,561	7,54
404,826	14,54
405,09	2,54
405,354	-19,46
405,619	15,54
405,883	-8,46
406,147	4,54
406,412	-9,46
406,676	5,54
406,94	11,54
407,205	-0,46
407,469	16,54
407,733	-2,46
407,997	-8,46
408,262	7,54
408,526	-9,46
408,79	-4,46
409,054	-23,46
409,319	-1,46
409,583	-16,46
409,847	-17,46
410,111	-1,46
410,375	20,54
410,64	9,54
410,904	1,54
411,168	-6,46
411,432	-2,46
411,696	-8,46
411,96	-7,46
412,225	0,54
412,489	8,54
412,753	3,54
413,017	-6,46
413,281	3,54
413,545	6,54
413,809	-1,46
414,073	0,54
414,337	-13,46
414,602	0,54
414,866	-4,46
415,13	8,54
415,394	8,54
415,658	-4,46
415,922	10,54
416,186	0,54
416,45	-7,46
416,714	12,54
416,978	-1,46
417,242	2,54
417,506	1,54
417,77	11,54
418,034	11,54
418,298	-9,46
418,562	19,54
418,825	14,54
419,089	8,54
419,353	-4,46
419,617	6,54
419,881	-12,46
420,145	-10,46
420,409	10,54
420,673	-8,46
420,937	-33,46
421,2	-12,46
421,464	15,54
421,728	8,54
421,992	-4,46
422,256	1,54
422,52	12,54
422,783	-0,46
423,047	-0,46
423,311	9,54
423,575	2,54
423,839	-16,46
424,102	-17,46
424,366	-6,46
424,63	-6,46
424,894	0,54
425,157	0,54
425,421	-1,46
425,685	-3,46
425,949	-8,46
426,212	4,54
426,476	-20,46
426,74	-18,46
427,003	0,54
427,267	-2,46
427,531	-10,46
427,794	8,54
428,058	-16,46
428,322	-24,46
428,585	-10,46
428,849	-5,46
429,112	-1,46
429,376	22,54
429,64	23,54
429,903	0,54
430,167	19,54
430,43	-15,46
430,694	-3,46
430,957	16,54
431,221	3,54
431,485	-12,46
431,748	-18,46
432,012	-15,46
432,275	12,54
432,539	9,54
432,802	20,54
433,066	-4,46
433,329	-24,46
433,593	-4,46
433,856	-0,46
434,119	11,54
434,383	-4,46
434,646	-15,46
434,91	37,54
435,173	-9,46
435,437	5,54
435,7	6,54
435,963	-9,46
436,227	0,54
436,49	-10,46
436,753	7,54
437,017	-0,46
437,28	0,54
437,544	4,54
437,807	-2,46
438,07	-5,46
438,334	-16,46
438,597	-0,46
438,86	15,54
439,123	2,54
439,387	-3,46
439,65	-14,46
439,913	-0,46
440,177	-17,46
440,44	-21,46
440,703	-8,46
440,966	-7,46
441,229	-1,46
441,493	-2,46
441,756	-3,46
442,019	-13,46
442,282	-6,46
442,545	-6,46
442,809	27,54
443,072	18,54
443,335	-2,46
443,598	10,54
443,861	9,54
444,124	-21,46
444,388	2,54
444,651	-13,46
444,914	21,54
445,177	14,54
445,44	1,54
445,703	-11,46
445,966	-4,46
446,229	-2,46
446,492	24,54
446,755	20,54
447,018	-6,46
447,281	-4,46
447,544	10,54
447,807	21,54
448,07	23,54
448,333	-1,46
448,596	-1,46
448,859	14,54
449,122	11,54
449,385	-10,46
449,648	-21,46
449,911	21,54
450,174	-12,46
450,437	5,54
450,7	1,54
450,963	2,54
451,226	1,54
451,489	-17,46
451,752	9,54
452,015	2,54
452,277	3,54
452,54	21,54
452,803	-5,46
453,066	2,54
453,329	26,54
453,592	-12,46
453,855	-21,46
454,117	10,54
454,38	22,54
454,643	-7,46
454,906	6,54
455,169	-5,46
455,431	-11,46
455,694	0,54
455,957	31,54
456,22	11,54
456,482	6,54
456,745	10,54
457,008	5,54
457,271	18,54
457,533	46,54
457,796	-24,46
458,059	-6,46
458,321	1,54
458,584	-5,46
458,847	-19,46
459,109	-18,46
459,372	-6,46
459,635	-18,46
459,897	5,54
460,16	11,54
460,423	12,54
460,685	-0,46
460,948	7,54
461,21	-16,46
461,473	-1,46
461,735	-17,46
461,998	8,54
462,261	-7,46
462,523	-23,46
462,786	1,54
463,048	-3,46
463,311	-8,46
463,573	-5,46
463,836	8,54
464,098	12,54
464,361	-4,46
464,623	-12,46
464,886	-9,46
465,148	15,54
465,411	6,54
465,673	2,54
465,936	18,54
466,198	22,54
466,46	-0,46
466,723	-2,46
466,985	-5,46
467,248	7,54
467,51	11,54
467,772	11,54
468,035	-0,46
468,297	10,54
468,56	-12,46
468,822	10,54
469,084	-11,46
469,347	-4,46
469,609	-2,46
469,871	18,54
470,133	23,54
470,396	9,54
470,658	-7,46
470,92	2,54
471,183	11,54
471,445	10,54
471,707	6,54
471,969	-11,46
472,232	-28,46
472,494	10,54
472,756	0,54
473,018	13,54
473,281	28,54
473,543	11,54
473,805	-1,46
474,067	15,54
474,329	18,54
474,591	10,54
474,854	-2,46
475,116	0,54
475,378	3,54
475,64	2,54
475,902	-1,46
476,164	4,54
476,426	-6,46
476,688	-5,46
476,951	-3,46
477,213	13,54
477,475	17,54
477,737	-28,46
477,999	-14,46
478,261	1,54
478,523	-22,46
478,785	-2,46
479,047	-9,46
479,309	-4,46
479,571	8,54
479,833	7,54
480,095	1,54
480,357	-0,46
480,619	1,54
480,881	-12,46
481,143	-4,46
481,405	-19,46
481,667	15,54
481,929	7,54
482,191	3,54
482,452	-6,46
482,714	-1,46
482,976	8,54
483,238	-13,46
483,5	-9,46
483,762	-0,46
484,024	-6,46
484,286	4,54
484,547	14,54
484,809	15,54
485,071	12,54
485,333	-4,46
485,595	-2,46
485,857	-0,46
486,118	-11,46
486,38	27,54
486,642	-25,46
486,904	-12,46
487,165	3,54
487,427	-17,46
487,689	28,54
487,951	-4,46
488,212	12,54
488,474	1,54
488,736	-26,46
488,998	3,54
489,259	13,54
489,521	-2,46
489,783	-1,46
490,044	-4,46
490,306	-0,46
490,568	20,54
490,829	-4,46
491,091	-22,46
491,353	6,54
491,614	15,54
491,876	-12,46
492,137	25,54
492,399	24,54
492,661	14,54
492,922	13,54
493,184	-10,46
493,445	-2,46
493,707	9,54
493,968	20,54
494,23	22,54
494,491	10,54
494,753	11,54
495,014	11,54
495,276	-17,46
495,537	-13,46
495,799	5,54
496,06	7,54
496,322	1,54
496,583	22,54
496,845	-1,46
497,106	-2,46
497,368	-15,46
497,629	3,54
497,89	-6,46
498,152	22,54
498,413	-13,46
498,675	5,54
498,936	-1,46
499,197	-6,46
499,459	-8,46
499,72	-0,46
499,981	4,54
500,243	14,54
500,504	8,54
500,765	-9,46
501,027	-9,46
501,288	1,54
501,549	4,54
501,811	-5,46
502,072	-15,46
502,333	29,54
502,594	12,54
502,856	-14,46
503,117	-6,46
503,378	-3,46
503,639	6,54
503,901	-3,46
504,162	-9,46
504,423	-0,46
504,684	-10,46
504,945	-8,46
505,207	20,54
505,468	3,54
505,729	-10,46
505,99	-6,46
506,251	-9,46
506,512	15,54
506,774	6,54
507,035	-11,46
507,296	-1,46
507,557	14,54
507,818	-1,46
508,079	6,54
508,34	-21,46
508,601	0,54
508,862	-6,46
509,123	7,54
509,384	1,54
509,645	-1,46
509,906	2,54
510,167	4,54
510,428	2,54
510,689	-4,46
510,95	-13,46
511,211	-1,46
511,472	3,54
511,733	-2,46
511,994	15,54
512,255	-3,46
512,516	0,54
512,777	6,54
513,038	2,54
513,299	-23,46
513,56	1,54
513,821	10,54
514,082	-6,46
514,343	-0,46
514,603	-8,46
514,864	2,54
515,125	15,54
515,386	8,54
515,647	5,54
515,908	10,54
516,169	11,54
516,429	10,54
516,69	-16,46
516,951	0,54
517,212	9,54
517,473	-10,46
517,733	-5,46
517,994	2,54
518,255	-20,46
518,516	1,54
518,776	-10,46
519,037	-4,46
519,298	-5,46
519,559	21,54
519,819	-2,46
520,08	6,54
520,341	-12,46
520,601	-10,46
520,862	11,54
521,123	-0,46
521,383	0,54
521,644	-16,46
521,905	-9,46
522,165	18,54
522,426	-5,46
522,686	6,54
522,947	2,54
523,208	8,54
523,468	-15,46
523,729	0,54
523,989	25,54
524,25	5,54
524,51	10,54
524,771	5,54
525,032	-11,46
525,292	-13,46
525,553	4,54
525,813	-3,46
526,074	-16,46
526,334	2,54
526,595	-9,46
526,855	-21,46
527,116	-14,46
527,376	10,54
527,636	-8,46
527,897	23,54
528,157	-1,46
528,418	-6,46
528,678	-13,46
528,939	2,54
529,199	9,54
529,459	-13,46
529,72	2,54
529,98	8,54
530,24	11,54
530,501	-8,46
530,761	-2,46
531,022	5,54
531,282	-2,46
531,542	-13,46
531,803	-2,46
532,063	-22,46
532,323	-9,46
532,583	6,54
532,844	-1,46
533,104	-12,46
533,364	-15,46
533,624	-10,46
533,885	-26,46
534,145	-5,46
534,405	-4,46
534,665	-0,46
534,926	5,54
535,186	-3,46
535,446	-0,46
535,706	6,54
535,966	3,54
536,227	-0,46
536,487	-6,46
536,747	-16,46
537,007	-7,46
537,267	7,54
537,527	-3,46
537,787	-9,46
538,048	-11,46
538,308	-3,46
538,568	-0,46
538,828	-17,46
539,088	-6,46
539,348	-23,46
539,608	-5,46
539,868	25,54
540,128	-0,46
540,388	4,54
540,648	13,54
540,908	-25,46
541,168	-1,46
541,428	6,54
541,688	-4,46
541,948	-20,46
542,208	-13,46
542,468	-5,46
542,728	-6,46
542,988	10,54
543,248	6,54
543,508	13,54
543,768	-1,46
544,028	-5,46
544,288	-0,46
544,548	18,54
544,807	-4,46
545,067	9,54
545,327	-16,46
545,587	3,54
545,847	30,54
546,107	3,54
